TITLE	14-3-3z_A-peptide_melt20-80deg
DATA TYPE	
ORIGIN	JASCO
OWNER	
DATE	21/07/26
TIME	15:45:07
SPECTROMETER/DATA SYSTEM	
LOCALE	1030
XUNITS	Temperature[C]
YUNITS	CD [mdeg]
Y2UNITS	HT [V]
FIRSTX	   19,9900
LASTX	   80,0000
NPOINTS	     573
XYDATA
19,9900	-30,3145	345,423
20,1000	-30,1988	345,505
20,2700	-30,5385	345,483
20,4000	-30,2522	345,436
20,5200	-30,1208	345,488
20,6600	-30,3745	345,524
20,7500	-30,1952	345,482
20,8700	-30,407	345,541
20,9400	-30,4291	345,555
21,0100	-29,9973	345,504
21,1000	-30,5404	345,573
21,2000	-30,6029	345,53
21,3100	-30,061	345,561
21,4800	-30,1215	345,559
21,5700	-30,3707	345,575
21,6300	-30,159	345,539
21,7800	-30,0823	345,612
21,8700	-30,0992	345,566
21,9600	-30,1891	345,637
22,0800	-30,2561	345,599
22,1400	-30,3418	345,583
22,3100	-29,9791	345,611
22,4000	-30,2479	345,611
22,5800	-30,3099	345,611
22,6600	-30,2523	345,602
22,7100	-30,1127	345,61
22,8800	-30,8178	345,624
22,9700	-30,404	345,653
23,0900	-30,121	345,639
23,1700	-30,0753	345,611
23,2700	-30,1657	345,61
23,3500	-30,435	345,638
23,4200	-30,098	345,675
23,6000	-29,6072	345,707
23,6600	-30,1858	345,696
23,7800	-30,2482	345,651
23,8500	-29,9313	345,665
23,9000	-29,975	345,672
24,0800	-30,0515	345,671
24,1700	-30,1619	345,652
24,2500	-30,0051	345,705
24,3600	-29,8392	345,656
24,4100	-29,988	345,743
24,5900	-29,9733	345,717
24,6500	-29,9841	345,668
24,7700	-30,3977	345,697
24,8500	-30,2648	345,72
24,9600	-29,8527	345,731
25,0800	-30,0763	345,735
25,1900	-29,6748	345,742
25,3000	-30,1744	345,747
25,3900	-29,8992	345,782
25,5000	-30,4793	345,736
25,5500	-30,278	345,716
25,6200	-29,7771	345,763
25,7500	-29,5289	345,735
25,8800	-30,3686	345,743
25,9700	-29,6986	345,77
26,0800	-29,5652	345,763
26,1700	-29,8123	345,761
26,2200	-29,6416	345,747
26,3200	-29,879	345,762
26,4000	-29,7667	345,767
26,5500	-30,2655	345,787
26,6000	-30,0219	345,764
26,7800	-29,5781	345,772
26,9000	-29,5456	345,731
27,0000	-29,8039	345,774
27,0900	-29,7488	345,789
27,1800	-30,2756	345,786
27,2400	-29,5867	345,765
27,3000	-29,3675	345,804
27,4700	-30,0903	345,762
27,5900	-30,0118	345,789
27,6800	-29,9621	345,763
27,7900	-30,2026	345,794
27,8800	-29,831	345,799
27,9300	-29,3107	345,751
28,0700	-29,7152	345,805
28,1700	-29,9867	345,773
28,2600	-29,5279	345,806
28,3900	-29,4989	345,81
28,4600	-29,7232	345,765
28,5300	-29,4882	345,794
28,6000	-30,0564	345,8
28,7000	-30,038	345,838
28,8600	-29,6175	345,775
28,9300	-29,7021	345,799
29,0100	-30,0642	345,829
29,1100	-29,5696	345,769
29,2200	-29,6435	345,809
29,3000	-29,4418	345,768
29,4000	-29,8493	345,84
29,5500	-29,8353	345,789
29,6900	-29,7369	345,818
29,7800	-29,7608	345,833
29,8700	-29,096	345,811
29,9800	-29,5132	345,8
30,0500	-29,494	345,875
30,1100	-29,3585	345,824
30,2900	-29,3454	345,809
30,3900	-29,3703	345,808
30,4800	-29,6209	345,821
30,5900	-29,2856	345,864
30,6600	-29,5126	345,826
30,7300	-29,3227	345,841
30,8100	-29,3846	345,879
30,9700	-29,6585	345,834
31,0400	-29,2965	345,871
31,1500	-29,2486	345,845
31,2100	-29,7305	345,905
31,3000	-29,7131	345,875
31,4100	-29,4592	345,864
31,5200	-29,3899	345,881
31,6100	-29,5431	345,845
31,7600	-29,6037	345,925
31,8100	-29,9451	345,908
31,9100	-29,7544	345,903
32,0300	-29,9116	345,898
32,1000	-29,2086	345,897
32,2700	-29,2825	345,9
32,3400	-29,7	345,908
32,4100	-29,2044	345,89
32,5800	-29,6433	345,949
32,7000	-29,0468	345,933
32,8100	-29,4658	345,929
32,9200	-29,8389	345,93
33,0200	-29,2764	345,941
33,2000	-29,5509	345,962
33,2600	-29,5447	346,004
33,3700	-29,577	345,962
33,4300	-29,8656	346,005
33,5000	-29,5922	346,043
33,7000	-29,537	346,044
33,8100	-29,0557	346,043
33,9700	-29,6463	346,04
34,0300	-29,3618	346,055
34,1100	-28,8523	346,085
34,2100	-29,2671	346,057
34,3100	-29,8629	346,071
34,4000	-29,4661	346,101
34,5400	-29,7738	346,098
34,6200	-29,5448	346,14
34,7000	-29,6647	346,152
34,8900	-29,3445	346,127
35,0200	-29,4458	346,129
35,1000	-29,2482	346,128
35,2000	-29,6711	346,182
35,3400	-29,16	346,149
35,4000	-29,0395	346,157
35,5200	-29,2524	346,202
35,6700	-29,1056	346,196
35,7800	-29,3961	346,187
35,8900	-29,0512	346,191
35,9900	-29,6206	346,217
36,1400	-29,7308	346,241
36,2200	-28,9823	346,255
36,3300	-28,8805	346,26
36,4200	-28,9659	346,266
36,5100	-29,177	346,259
36,6100	-28,9289	346,296
36,7100	-29,0087	346,303
36,8600	-29,2042	346,289
36,9200	-29,4551	346,313
37,0800	-29,1229	346,302
37,1600	-29,1793	346,293
37,2600	-29,6179	346,31
37,3600	-29,3264	346,373
37,4500	-29,3455	346,346
37,5200	-29,371	346,366
37,6300	-28,9164	346,363
37,7800	-29,3477	346,436
37,8600	-28,8022	346,392
37,9600	-29,4349	346,418
38,0700	-29,6229	346,402
38,1400	-29,4606	346,405
38,2300	-29,1446	346,438
38,3800	-29,5505	346,466
38,4600	-29,4257	346,436
38,5700	-29,0416	346,464
38,6500	-29,2515	346,45
38,7300	-29,0312	346,473
38,8300	-29,5268	346,478
38,9200	-28,9656	346,508
39,0800	-29,3213	346,494
39,1400	-29,4562	346,518
39,2700	-29,4514	346,532
39,3800	-29,6534	346,506
39,4800	-29,0432	346,556
39,5400	-29,1693	346,513
39,6300	-29,5887	346,577
39,7000	-29,4899	346,591
39,8600	-29,1461	346,611
39,9700	-29,102	346,607
40,1000	-28,6277	346,606
40,2000	-29,4144	346,667
40,3100	-29,2046	346,65
40,4200	-29,6447	346,612
40,5000	-29,3486	346,673
40,6100	-29,1115	346,686
40,7600	-29,2789	346,626
40,8300	-29,5523	346,677
40,9300	-29,3324	346,737
41,0600	-29,179	346,711
41,1800	-29,3652	346,712
41,2800	-28,8545	346,735
41,3800	-29,0816	346,727
41,4300	-28,9345	346,735
41,5200	-29,3479	346,769
41,6400	-29,2034	346,727
41,7500	-29,6048	346,777
41,8400	-29,4469	346,775
41,9400	-29,0275	346,765
42,0100	-29,1464	346,762
42,1000	-29,1384	346,831
42,2700	-29,0207	346,859
42,3600	-29,2212	346,842
42,5000	-29,4492	346,853
42,5800	-29,0708	346,838
42,6600	-29,0279	346,883
42,7100	-29,546	346,837
42,8000	-29,4272	346,855
42,9600	-29,3452	346,883
43,0600	-29,4524	346,891
43,1400	-29,1464	346,913
43,2200	-29,1873	346,878
43,3800	-29,2475	346,883
43,4900	-29,3023	346,924
43,5700	-29,1494	346,972
43,6700	-28,7872	346,929
43,7700	-29,1802	346,898
43,8200	-28,9775	346,959
43,9800	-29,4009	346,956
44,0800	-29,0738	346,986
44,1900	-29,276	346,948
44,2700	-29,3425	346,995
44,3200	-28,6418	346,985
44,4900	-28,7814	346,98
44,6000	-29,4457	346,975
44,6900	-29,4144	346,99
44,7500	-29,1798	346,986
44,8200	-28,6639	347,014
44,9000	-28,5086	347,053
45,0000	-29,2005	347,026
45,1000	-29,0413	347,043
45,2000	-28,5718	347,02
45,3900	-29,1769	347,051
45,4500	-28,9028	347,027
45,5100	-28,6936	347,05
45,6000	-29,2217	347,103
45,7000	-28,8116	347,084
45,8800	-29,1989	347,085
45,9400	-29,5041	347,094
46,0200	-28,5554	347,085
46,1000	-29,0251	347,108
46,2600	-28,9584	347,112
46,3700	-29,0395	347,08
46,4500	-28,8878	347,132
46,5100	-28,3941	347,128
46,6000	-28,9546	347,167
46,7700	-28,7104	347,178
46,9100	-29,024	347,152
47,0000	-29,0019	347,174
47,1100	-29,219	347,177
47,2100	-28,6362	347,181
47,3900	-29,214	347,197
47,4900	-28,9185	347,202
47,5900	-28,9028	347,215
47,6800	-28,6228	347,2
47,7300	-28,9631	347,187
47,8100	-28,8175	347,196
47,9600	-28,7816	347,232
48,0300	-28,8053	347,258
48,1700	-28,9237	347,266
48,2800	-28,6689	347,275
48,3600	-28,8257	347,268
48,4300	-28,8504	347,254
48,5600	-28,5094	347,249
48,6100	-28,6039	347,278
48,7900	-28,5092	347,323
48,8300	-29,0242	347,302
48,9500	-28,869	347,303
49,1100	-28,8612	347,336
49,2000	-28,788	347,321
49,3300	-28,439	347,335
49,4300	-28,6612	347,33
49,5000	-28,6189	347,364
49,6800	-28,9079	347,386
49,8000	-28,4688	347,387
49,9100	-28,5158	347,377
50,0100	-28,7424	347,429
50,1700	-28,3898	347,467
50,2900	-28,9459	347,438
50,3700	-28,9423	347,465
50,4300	-28,7385	347,457
50,5100	-29,028	347,466
50,6900	-28,6828	347,473
50,8000	-28,6064	347,519
50,8900	-28,6914	347,52
50,9700	-28,632	347,571
51,0400	-29,0979	347,555
51,1100	-28,2782	347,525
51,2000	-28,4234	347,54
51,3200	-28,4674	347,574
51,4100	-27,9699	347,563
51,5000	-28,2701	347,57
51,6300	-28,5346	347,592
51,7200	-28,2639	347,606
51,8700	-28,7405	347,612
51,9500	-28,8639	347,637
52,0400	-28,4263	347,61
52,1200	-28,5381	347,608
52,2000	-29,1021	347,648
52,3000	-28,4918	347,623
52,4300	-28,1914	347,639
52,5300	-28,6395	347,619
52,6000	-28,6305	347,684
52,7400	-29,2663	347,711
52,8200	-28,7168	347,697
52,9200	-28,4256	347,705
53,0100	-28,3009	347,708
53,1200	-28,3854	347,717
53,2000	-28,5731	347,718
53,3200	-28,4496	347,736
53,4400	-28,6589	347,731
53,5900	-28,3135	347,754
53,6900	-28,6075	347,751
53,8000	-28,1219	347,71
53,8800	-28,3952	347,813
53,9300	-28,2097	347,803
54,0900	-28,3385	347,799
54,2100	-28,3423	347,78
54,3000	-28,5028	347,821
54,4400	-28,8577	347,826
54,5000	-28,2507	347,823
54,6900	-28,4855	347,876
54,8200	-28,209	347,856
54,9200	-28,1324	347,866
55,0000	-28,2512	347,856
55,1600	-28,5061	347,903
55,2500	-28,9394	347,902
55,3500	-28,457	347,933
55,4900	-28,4507	347,966
55,6000	-28,6038	347,887
55,6500	-28,4607	347,902
55,7000	-28,4583	347,982
55,8800	-28,6761	347,941
55,9400	-28,5094	347,981
56,0700	-28,1412	347,957
56,1400	-28,0421	347,966
56,2300	-28,2375	347,949
56,3000	-28,5814	347,954
56,4800	-28,2865	347,938
56,5700	-28,2496	347,95
56,7200	-28,3176	347,986
56,8100	-28,2511	348,004
56,9100	-28,0233	348,014
57,0200	-28,147	348,018
57,1900	-28,1055	347,988
57,2500	-28,2692	348,012
57,3000	-28,3086	348,025
57,4400	-28,2211	348,049
57,5700	-28,4515	348,033
57,6800	-28,3225	348,083
57,7900	-28,301	348,032
57,8700	-27,9384	348,061
57,9400	-28,1037	348,065
58,0000	-28,0796	348,094
58,1900	-27,9595	348,078
58,2600	-28,1062	348,135
58,3700	-28,2252	348,117
58,4900	-27,919	348,1
58,6200	-27,8074	348,143
58,7500	-28,1081	348,146
58,8700	-28,1964	348,172
58,9400	-27,6434	348,18
59,0100	-28,311	348,175
59,1200	-28,0341	348,204
59,2500	-27,9497	348,179
59,3900	-27,7246	348,203
59,4700	-28,2129	348,246
59,5300	-28,0247	348,201
59,6500	-28,3574	348,202
59,8000	-28,1288	348,232
59,9200	-27,7063	348,242
60,0100	-27,8625	348,267
60,1200	-28,215	348,277
60,2300	-27,3717	348,251
60,3800	-27,7452	348,274
60,4900	-27,8571	348,328
60,5900	-27,9314	348,293
60,6900	-28,2881	348,321
60,7500	-27,8658	348,33
60,8300	-27,8317	348,35
60,9300	-27,6471	348,353
61,0000	-28,0382	348,373
61,1300	-27,9392	348,384
61,2600	-28,2141	348,418
61,3600	-27,9053	348,402
61,4800	-27,4433	348,418
61,6100	-27,8617	348,437
61,7300	-27,2375	348,384
61,8000	-27,7561	348,414
61,9300	-27,8906	348,437
62,0600	-27,1265	348,461
62,1300	-27,8064	348,467
62,2700	-27,67	348,476
62,3800	-27,636	348,451
62,4500	-27,6068	348,476
62,5300	-27,2338	348,469
62,6800	-27,6702	348,498
62,7900	-28,0293	348,536
62,9200	-27,3802	348,551
63,0000	-27,1318	348,529
63,1100	-27,0668	348,469
63,2000	-27,5546	348,561
63,3000	-27,6052	348,583
63,4000	-27,2096	348,559
63,5500	-27,1782	348,573
63,6100	-27,3697	348,622
63,7700	-27,1629	348,648
63,9100	-26,8757	348,601
64,0100	-26,5297	348,629
64,1100	-27,011	348,665
64,2900	-26,9333	348,692
64,4300	-26,7415	348,69
64,5100	-26,813	348,655
64,6100	-26,9397	348,678
64,7400	-26,5957	348,723
64,8000	-27,005	348,732
64,9600	-26,6189	348,758
65,0200	-26,2277	348,73
65,2000	-26,4729	348,786
65,3400	-26,4946	348,732
65,4500	-26,2365	348,755
65,5500	-25,9482	348,791
65,6900	-25,6705	348,825
65,7000	-26,0686	348,807
65,8500	-26,0131	348,79
65,9700	-25,9465	348,838
66,0900	-26,3592	348,854
66,1700	-25,1418	348,859
66,2600	-25,7109	348,916
66,3800	-25,4123	348,871
66,4600	-25,3954	348,909
66,5400	-25,3496	348,921
66,6300	-24,46	348,923
66,7400	-24,776	348,94
66,8300	-24,9601	348,984
66,9200	-24,9975	348,997
67,0300	-24,5895	349,009
67,1000	-24,238	349,034
67,2200	-24,2356	349,097
67,3900	-24,3493	349,133
67,5000	-23,5875	349,14
67,5700	-23,5278	349,161
67,6500	-23,4503	349,215
67,7200	-23,5317	349,227
67,8200	-23,23	349,273
67,9000	-22,6043	349,25
68,0400	-22,2563	349,342
68,1200	-21,2889	349,362
68,2100	-21,3781	349,376
68,3400	-21,2032	349,428
68,4400	-21,264	349,454
68,5300	-20,1313	349,598
68,6300	-19,4478	349,638
68,7500	-19,7289	349,678
68,9200	-19,5211	349,701
69,0400	-18,951	349,785
69,1800	-18,5888	349,81
69,2300	-18,8065	349,858
69,3700	-17,3123	349,988
69,4600	-16,7355	350,036
69,5500	-16,4526	350,03
69,6700	-16,6679	350,061
69,7500	-16,359	350,13
69,8300	-15,7711	350,16
69,9400	-15,5168	350,167
70,0400	-15,2724	350,213
70,1100	-14,9769	350,264
70,2600	-15,0911	350,292
70,3100	-14,8648	350,366
70,4100	-14,944	350,336
70,5000	-14,8294	350,374
70,6600	-14,8803	350,401
70,7700	-15,1189	350,408
70,8500	-14,6624	350,462
70,9300	-14,7865	350,436
71,0800	-14,126	350,47
71,2200	-14,8841	350,493
71,3800	-14,6164	350,532
71,4400	-14,7179	350,563
71,5000	-14,5537	350,531
71,6700	-14,7522	350,606
71,8200	-14,4223	350,605
71,9300	-14,5955	350,629
72,0300	-14,4393	350,602
72,1000	-14,6721	350,628
72,2100	-14,2812	350,667
72,3600	-14,4063	350,618
72,4400	-14,7341	350,701
72,5400	-14,5871	350,702
72,6000	-14,1429	350,67
72,7600	-14,715	350,695
72,8900	-14,1741	350,711
72,9900	-14,2206	350,742
73,1100	-14,1974	350,713
73,2000	-14,543	350,767
73,4200	-14,0766	350,775
73,5100	-14,5905	350,789
73,6200	-13,9557	350,771
73,7000	-14,3293	350,788
73,8300	-14,465	350,841
73,9000	-13,9733	350,767
74,0300	-14,0786	350,813
74,1400	-14,2589	350,822
74,2200	-14,2324	350,807
74,3000	-14,4834	350,801
74,4000	-14,2288	350,804
74,5700	-14,4264	350,839
74,6500	-14,3947	350,878
74,7800	-14,1885	350,878
74,8400	-14,4386	350,888
74,9100	-14,3141	350,891
75,0300	-14,0698	350,862
75,1600	-14,036	350,882
75,2500	-13,4283	350,926
75,3000	-13,8087	350,963
75,4300	-14,3845	350,952
75,5100	-13,8095	350,948
75,7000	-14,0581	350,951
75,8200	-14,3045	350,958
75,9300	-14,1827	351,029
76,0200	-14,1307	350,961
76,1600	-13,8803	350,982
76,3000	-13,8281	350,988
76,3800	-14,1557	350,974
76,4900	-13,8889	351,034
76,5800	-14,0856	351,008
76,6400	-13,9887	350,993
76,7000	-13,7754	351,023
76,8000	-14,132	351,022
76,9000	-13,9058	351,043
77,0500	-13,9724	351,064
77,1400	-13,5436	351,069
77,2100	-14,103	351,078
77,4000	-13,7268	351,094
77,5100	-13,906	351,109
77,6800	-13,8412	351,112
77,7700	-13,5363	351,092
77,8200	-13,8167	351,165
77,9800	-13,5604	351,137
78,0900	-13,5259	351,132
78,2100	-13,5997	351,135
78,3100	-13,9788	351,126
78,4000	-13,9855	351,18
78,5000	-13,6963	351,176
78,6000	-13,6923	351,166
78,7800	-13,7324	351,216
78,8600	-13,0661	351,201
78,9100	-13,4575	351,207
79,0900	-13,1947	351,255
79,2000	-13,7315	351,265
79,2900	-13,8433	351,269
79,3300	-13,4909	351,244
79,4000	-13,2693	351,259
79,5200	-14,1246	351,302
79,6400	-13,7067	351,265
79,7400	-13,2477	351,326
79,8000	-13,4098	351,28
79,9300	-13,4158	351,302
80,0000	-12,6417	351,337

##### Extended Information
[Comments]
Sample name	14-3-3z_A-peptide_melt20-80deg
Comment	245
User
Division
Company	University of Copenhagen

[Detailed Information]
Creation date	26-07-2021 15:45

Data array type	Non-linear data array * 2
Horizontal axis	Temperature [C]
Vertical axis(1)	CD [mdeg]
Vertical axis(2)	HT [V]
Start	19,99 C
End	80 C
Data points	573     

[Measurement Information]
Instrument name	Jasco J-810
Model name	J-810
Serial No.	B003960750

Accessory	PTC-423S
Accessory S/N	A035260819
  Control sensor	Holder
  Monitor sensor	Holder
  Start Mode	Keep target temperature +/-0.10 deg C while 5 seconds
  Cell length	1 mm

Measurement date	26-07-2021 15:45

Photometric mode	CD, HT
Sensitivity	Standard
D.I.T.	2 sec
Bandwidth	1.00 nm
Monitor wavelength	222 nm
Baseline correction	None
Shutter control	Auto
CD detector	PMT
PMT voltage	Auto
No. of cycle	1

Concentration	5 umol/L
Solvent	1xPBS, 0.5mM TCEP, pH 7.2

